ATF	1.0
8	3     
"AcquisitionMode=Episodic Stimulation"
"Comment="
"YTop=20000,100"
"YBottom=-20000,-100"
"SyncTimeUnits=12.5"
"SweepStartTimesMS=0.000"
"SignalsExported=Ipatch,piezo"
"Signals="	"Ipatch"	"piezo"
"Time (s)"	"Trace #1 (pA)"	"Trace #1 (µm)"
0	-1086.43	-0.582886
5e-5	-1086.43	-0.595093
1e-4	-1089.48	-0.582886
1.5e-4	-1085.21	-0.588989
2e-4	-1090.09	-0.592041
2.5e-4	-1087.04	-0.598145
3e-4	-1083.98	-0.598145
3.5e-4	-1083.98	-0.582886
4e-4	-1087.65	-0.592041
4.5e-4	-1082.15	-0.570679
5e-4	-1085.21	-0.588989
5.5e-4	-1081.54	-0.592041
6e-4	-1083.98	-0.592041
6.5e-4	-1086.43	-0.576782
7e-4	-1086.43	-0.576782
7.5e-4	-1085.21	-0.579834
8e-4	-1085.21	-0.570679
8.5e-4	-1091.31	-0.585938
9e-4	-1087.65	-0.576782
9.5e-4	-1078.49	-0.588989
0.001	-1087.65	-0.588989
0.00105	-1088.26	-0.585938
0.0011	-1087.04	-0.582886
0.00115	-1080.93	-0.576782
0.0012	-1090.7	-0.595093
0.00125	-1079.71	-0.588989
0.0013	-1085.82	-0.592041
0.00135	-1095.58	-0.588989
0.0014	-1088.26	-0.588989
0.00145	-1088.26	-0.576782
0.0015	-1096.19	-0.57373
0.00155	-1087.65	-0.588989
0.0016	-1088.87	-0.576782
0.00165	-1085.82	-0.588989
0.0017	-1091.92	-0.582886
0.00175	-1088.26	-0.598145
0.0018	-1090.7	-0.582886
0.00185	-1088.26	-0.585938
0.0019	-1091.31	-0.598145
0.00195	-1091.31	-0.576782
0.002	-1088.26	-0.595093
0.00205	-1102.29	-0.585938
0.0021	-1093.14	-0.595093
0.00215	-1085.21	-0.585938
0.0022	-1098.63	-0.592041
0.00225	-1093.14	-0.604248
0.0023	-1080.32	-0.585938
0.00235	-1095.58	-0.595093
0.0024	-1093.75	-0.585938
0.00245	-1098.63	-0.585938
0.0025	-1096.19	-0.585938
0.00255	-1104.13	-0.582886
0.0026	-1098.02	-0.585938
0.00265	-1095.58	-0.588989
0.0027	-1100.46	-0.601196
0.00275	-1097.41	-0.588989
0.0028	-1090.7	-0.6073
0.00285	-1088.26	-0.595093
0.0029	-1101.07	-0.588989
0.00295	-1096.19	-0.592041
0.003	-1096.19	-0.582886
0.00305	-1099.24	-0.588989
0.0031	-1100.46	-0.582886
0.00315	-1095.58	-0.588989
0.0032	-1100.46	-0.576782
0.00325	-1094.36	-0.588989
0.0033	-1094.97	-0.582886
0.00335	-1098.02	-0.582886
0.0034	-1100.46	-0.582886
0.00345	-1099.85	-0.570679
0.0035	-1094.36	-0.588989
0.00355	-1093.14	-0.579834
0.0036	-1100.46	-0.592041
0.00365	-1103.52	-0.582886
0.0037	-1095.58	-0.576782
0.00375	-1099.85	-0.588989
0.0038	-1097.41	-0.595093
0.00385	-1096.8	-0.6073
0.0039	-1099.85	-0.595093
0.00395	-1105.35	-0.604248
0.004	-1097.41	-0.585938
0.00405	-1094.97	-0.595093
0.0041	-1094.97	-0.576782
0.00415	-1102.29	-0.588989
0.0042	-1096.19	-0.592041
0.00425	-1093.14	-0.576782
0.0043	-1097.41	-0.592041
0.00435	-1101.07	-0.582886
0.0044	-1099.85	-0.598145
0.00445	-1094.97	-0.601196
0.0045	-1094.36	-0.592041
0.00455	-1099.24	-0.592041
0.0046	-1095.58	-0.582886
0.00465	-1095.58	-0.598145
0.0047	-1096.19	-0.585938
0.00475	-1096.8	-0.595093
0.0048	-1098.63	-0.579834
0.00485	-1096.8	-0.582886
0.0049	-1088.26	-0.592041
0.00495	-1090.09	-0.582886
0.005	-1098.02	-0.601196
0.00505	-1102.29	-0.576782
0.0051	-1098.63	-0.588989
0.00515	-1096.19	-0.592041
0.0052	-1097.41	-0.585938
0.00525	-1103.52	-0.579834
0.0053	-1102.91	-0.585938
0.00535	-1101.68	-0.601196
0.0054	-1095.58	-0.592041
0.00545	-1094.36	-0.598145
0.0055	-1104.13	-0.588989
0.00555	-1098.02	-0.598145
0.0056	-1102.91	-0.595093
0.00565	-1096.19	-0.582886
0.0057	-1094.36	-0.582886
0.00575	-1101.07	-0.57373
0.0058	-1099.85	-0.598145
0.00585	-1106.57	-0.592041
0.0059	-1099.24	-0.585938
0.00595	-1105.96	-0.588989
0.006	-1097.41	-0.588989
0.00605	-1106.57	-0.598145
0.0061	-1104.13	-0.585938
0.00615	-1101.68	-0.604248
0.0062	-1097.41	-0.588989
0.00625	-1099.24	-0.598145
0.0063	-1093.75	-0.582886
0.00635	-1089.48	-0.585938
0.0064	-1093.14	-0.588989
0.00645	-1093.75	-0.567627
0.0065	-1091.92	-0.585938
0.00655	-1090.09	-0.570679
0.0066	-1093.14	-0.576782
0.00665	-1093.14	-0.567627
0.0067	-1091.31	-0.582886
0.00675	-1093.14	-0.582886
0.0068	-1094.97	-0.576782
0.00685	-1097.41	-0.585938
0.0069	-1096.8	-0.57373
0.00695	-1090.09	-0.588989
0.007	-1094.36	-0.582886
0.00705	-1101.07	-0.588989
0.0071	-1092.53	-0.585938
0.00715	-1092.53	-0.585938
0.0072	-1097.41	-0.588989
0.00725	-1088.87	-0.57373
0.0073	-1092.53	-0.598145
0.00735	-1095.58	-0.585938
0.0074	-1085.21	-0.585938
0.00745	-1093.75	-0.582886
0.0075	-1088.87	-0.588989
0.00755	-1097.41	-0.592041
0.0076	-1088.26	-0.576782
0.00765	-1093.14	-0.582886
0.0077	-1089.48	-0.585938
0.00775	-1085.21	-0.592041
0.0078	-1085.21	-0.576782
0.00785	-1090.09	-0.582886
0.0079	-1093.75	-0.585938
0.00795	-1089.48	-0.576782
0.008	-1086.43	-0.595093
0.00805	-1088.87	-0.570679
0.0081	-1087.65	-0.579834
0.00815	-1093.75	-0.57373
0.0082	-1089.48	-0.579834
0.00825	-1090.09	-0.579834
0.0083	-1089.48	-0.582886
0.00835	-1096.19	-0.595093
0.0084	-1087.65	-0.588989
0.00845	-1085.21	-0.601196
0.0085	-1083.98	-0.585938
0.00855	-1088.87	-0.595093
0.0086	-1089.48	-0.595093
0.00865	-1095.58	-0.592041
0.0087	-1090.7	-0.595093
0.00875	-1090.09	-0.585938
0.0088	-1090.7	-0.585938
0.00885	-1093.14	-0.582886
0.0089	-1090.7	-0.585938
0.00895	-1093.14	-0.595093
0.009	-1085.82	-0.592041
0.00905	-1091.92	-0.585938
0.0091	-1085.21	-0.582886
0.00915	-1090.09	-0.598145
0.0092	-1086.43	-0.579834
0.00925	-1088.87	-0.592041
0.0093	-1089.48	-0.585938
0.00935	-1092.53	-0.582886
0.0094	-1099.85	-0.582886
0.00945	-1093.14	-0.579834
0.0095	-1090.7	-0.592041
0.00955	-1098.63	-0.582886
0.0096	-1093.75	-0.598145
0.00965	-1099.85	-0.576782
0.0097	-1101.68	-0.582886
0.00975	-1088.26	-0.585938
0.0098	-1097.41	-0.585938
0.00985	-1103.52	-0.585938
0.0099	-1099.24	-0.576782
0.00995	-1101.07	-0.588989
0.01	-1097.41	-0.576782
0.01005	-1095.58	-0.588989
0.0101	-1096.8	-0.588989
0.01015	-1099.24	-0.592041
0.0102	-1102.29	-0.595093
0.01025	-1093.14	-0.592041
0.0103	-1091.31	-0.604248
0.01035	-1087.04	-0.585938
0.0104	-1098.63	-0.595093
0.01045	-1099.24	-0.582886
0.0105	-1093.75	-0.588989
0.01055	-1093.75	-0.592041
0.0106	-1087.65	-0.592041
0.01065	-1090.7	-0.598145
0.0107	-1093.14	-0.576782
0.01075	-1094.36	-0.592041
0.0108	-1091.31	-0.579834
0.01085	-1090.09	-0.585938
0.0109	-1088.26	-0.585938
0.01095	-1093.14	-0.595093
0.011	-1088.26	-0.598145
0.01105	-1098.02	-0.585938
0.0111	-1092.53	-0.592041
0.01115	-1088.87	-0.582886
0.0112	-1088.87	-0.598145
0.01125	-1093.14	-0.588989
0.0113	-1085.21	-0.595093
0.01135	-1096.19	-0.585938
0.0114	-1094.97	-0.582886
0.01145	-1095.58	-0.592041
0.0115	-1094.97	-0.585938
0.01155	-1093.14	-0.604248
0.0116	-1080.93	-0.585938
0.01165	-1094.97	-0.601196
0.0117	-1087.04	-0.592041
0.01175	-1085.82	-0.585938
0.0118	-1082.15	-0.601196
0.01185	-1093.14	-0.592041
0.0119	-1084.59	-0.6073
0.01195	-1094.97	-0.592041
0.012	-1098.02	-0.585938
0.01205	-1096.19	-0.592041
0.0121	-1094.97	-0.579834
0.01215	-1088.87	-0.588989
0.0122	-1094.36	-0.579834
0.01225	-1088.26	-0.598145
0.0123	-1085.82	-0.592041
0.01235	-1089.48	-0.604248
0.0124	-1088.26	-0.595093
0.01245	-1085.82	-0.588989
0.0125	-1083.98	-0.595093
0.01255	-1081.54	-0.576782
0.0126	-1085.21	-0.592041
0.01265	-1090.09	-0.579834
0.0127	-1093.75	-0.604248
0.01275	-1090.09	-0.595093
0.0128	-1089.48	-0.592041
0.01285	-1096.19	-0.588989
0.0129	-1093.75	-0.592041
0.01295	-1088.87	-0.598145
0.013	-1090.09	-0.595093
0.01305	-1087.65	-0.6073
0.0131	-1094.36	-0.585938
0.01315	-1086.43	-0.598145
0.0132	-1088.26	-0.604248
0.01325	-1098.02	-0.601196
0.0133	-1080.93	-0.6073
0.01335	-1090.09	-0.582886
0.0134	-1096.19	-0.592041
0.01345	-1092.53	-0.601196
0.0135	-1080.32	-0.601196
0.01355	-1091.31	-0.592041
0.0136	-1088.26	-0.582886
0.01365	-1079.1	-0.595093
0.0137	-1086.43	-0.579834
0.01375	-1085.82	-0.6073
0.0138	-1087.04	-0.592041
0.01385	-1088.26	-0.6073
0.0139	-1085.82	-0.595093
0.01395	-50.0488	-0.6073
0.014	452.271	-0.604248
0.01405	332.031	-0.598145
0.0141	222.168	-0.616455
0.01415	137.939	-0.604248
0.0142	60.4248	-0.613403
0.01425	0	-0.595093
0.0143	-48.2178	-0.604248
0.01435	-101.318	-0.592041
0.0144	-135.498	-0.579834
0.01445	-162.964	-0.588989
0.0145	-189.819	-0.576782
0.01455	-213.013	-0.598145
0.0146	-229.492	-0.576782
0.01465	-246.582	-0.57373
0.0147	-267.944	-0.579834
0.01475	-289.917	-0.579834
0.0148	-293.579	-0.585938
0.01485	-299.683	-0.57373
0.0149	-326.538	-0.592041
0.01495	-333.252	-0.576782
0.015	-347.9	-0.576782
0.01505	-360.107	-0.579834
0.0151	-358.887	-0.595093
0.01515	-368.042	-0.598145
0.0152	-388.794	-0.588989
0.01525	-391.235	-0.601196
0.0153	-383.301	-0.579834
0.01535	-408.325	-0.588989
0.0154	-414.429	-0.579834
0.01545	-409.546	-0.598145
0.0155	-420.532	-0.579834
0.01555	-426.636	-0.567627
0.0156	-433.96	-0.585938
0.01565	-447.388	-0.570679
0.0157	-452.881	-0.57373
0.01575	-448.608	-0.576782
0.0158	-460.205	-0.582886
0.01585	-462.036	-0.570679
0.0159	-469.36	-0.558472
0.01595	-473.022	-0.576782
0.016	-477.905	-0.57373
0.01605	-480.347	-0.582886
0.0161	-487.671	-0.57373
0.01615	-499.878	-0.579834
0.0162	-496.216	-0.576782
0.01625	-500.488	-0.585938
0.0163	-506.592	-0.588989
0.01635	-513.306	-0.579834
0.0164	-517.578	-0.588989
0.01645	-522.461	-0.57373
0.0165	-523.682	-0.598145
0.01655	-527.954	-0.585938
0.0166	-528.564	-0.588989
0.01665	-528.564	-0.588989
0.0167	-532.837	-0.579834
0.01675	-540.771	-0.598145
0.0168	-540.771	-0.582886
0.01685	-546.265	-0.595093
0.0169	-551.758	-0.576782
0.01695	-556.641	-0.598145
0.017	-556.641	-0.588989
0.01705	-562.744	-0.582886
0.0171	-566.406	-0.588989
0.01715	-570.679	-0.576782
0.0172	-573.12	-0.592041
0.01725	-568.237	-0.57373
0.0173	-566.406	-0.582886
0.01735	-575.562	-0.579834
0.0174	-579.224	-0.585938
0.01745	-582.275	-0.588989
0.0175	-590.21	-0.585938
0.01755	-590.82	-0.595093
0.0176	-592.041	-0.579834
0.01765	-593.872	-0.579834
0.0177	-595.093	-0.582886
0.01775	-588.379	-0.588989
0.0178	-591.431	-0.588989
0.01785	-599.976	-0.582886
0.0179	-600.586	-0.592041
0.01795	-592.041	-0.585938
0.018	-603.027	-0.588989
0.01805	-606.689	-0.576782
0.0181	-602.417	-0.579834
0.01815	-607.91	-0.57373
0.0182	-601.196	-0.576782
0.01825	-610.352	-0.582886
0.0183	-621.338	-0.567627
0.01835	-621.338	-0.585938
0.0184	-622.559	-0.576782
0.01845	-610.352	-0.588989
0.0185	-627.441	-0.582886
0.01855	-626.831	-0.585938
0.0186	-629.272	-0.588989
0.01865	-627.441	-0.576782
0.0187	-623.169	-0.595093
0.01875	-637.817	-0.567627
0.0188	-632.935	-0.585938
0.01885	-634.766	-0.588989
0.0189	-642.09	-0.588989
0.01895	-634.155	-0.576782
0.019	-632.324	-0.576782
0.01905	-637.207	-0.585938
0.0191	-639.038	-0.576782
0.01915	-638.428	-0.585938
0.0192	-642.09	-0.579834
0.01925	-642.09	-0.582886
0.0193	-641.479	-0.595093
0.01935	-643.921	-0.579834
0.0194	-640.869	-0.585938
0.01945	-648.804	-0.576782
0.0195	-640.259	-0.588989
0.01955	-650.024	-0.57373
0.0196	-657.349	-0.582886
0.01965	-646.973	-0.579834
0.0197	-649.414	-0.592041
0.01975	-655.518	-0.592041
0.0198	-646.973	-0.582886
0.01985	-656.738	-0.588989
0.0199	-657.349	-0.579834
0.01995	-654.297	-0.592041
0.02	-656.738	-0.582886
0.02005	-657.349	-0.595093
0.0201	-651.245	-0.598145
0.02015	-651.855	-0.582886
0.0202	-655.518	-0.595093
0.02025	-661.621	-0.582886
0.0203	-654.907	-0.595093
0.02035	-657.349	-0.582886
0.0204	-658.569	-0.582886
0.02045	-657.349	-0.588989
0.0205	-657.349	-0.579834
0.02055	-658.569	-0.592041
0.0206	-657.349	-0.588989
0.02065	-662.231	-0.601196
0.0207	-659.79	-0.588989
0.02075	-664.673	-0.588989
0.0208	-665.283	-0.582886
0.02085	-664.673	-0.579834
0.0209	-668.945	-0.592041
0.02095	-668.945	-0.592041
0.021	-661.011	-0.6073
0.02105	-665.283	-0.582886
0.0211	-665.894	-0.595093
0.02115	-671.387	-0.592041
0.0212	-662.842	-0.592041
0.02125	-665.894	-0.592041
0.0213	-671.387	-0.582886
0.02135	-665.894	-0.585938
0.0214	-675.049	-0.576782
0.02145	-670.776	-0.601196
0.0215	-674.438	-0.585938
0.02155	-668.335	-0.585938
0.0216	-674.438	-0.592041
0.02165	-675.659	-0.595093
0.0217	-670.776	-0.598145
0.02175	-667.725	-0.576782
0.0218	-657.959	-0.588989
0.02185	-674.438	-0.579834
0.0219	-669.556	-0.595093
0.02195	-671.387	-0.595093
0.022	-674.438	-0.588989
0.02205	-668.945	-0.592041
0.0221	-676.27	-0.582886
0.02215	-673.218	-0.604248
0.0222	-673.828	-0.592041
0.02225	-681.763	-0.595093
0.0223	-667.114	-0.592041
0.02235	-673.218	-0.595093
0.0224	-679.321	-0.598145
0.02245	-678.101	-0.582886
0.0225	-684.814	-0.592041
0.02255	-678.101	-0.579834
0.0226	-680.542	-0.601196
0.02265	-676.27	-0.585938
0.0227	-676.88	-0.588989
0.02275	-682.983	-0.592041
0.0228	-678.101	-0.585938
0.02285	-679.932	-0.598145
0.0229	-681.763	-0.57373
0.02295	-676.27	-0.582886
0.023	-681.763	-0.585938
0.02305	-679.932	-0.595093
0.0231	-682.983	-0.592041
0.02315	-687.256	-0.588989
0.0232	-684.814	-0.601196
0.02325	-692.139	-0.579834
0.0233	-684.204	-0.585938
0.02335	-686.646	-0.585938
0.0234	-693.359	-0.588989
0.02345	-688.477	-0.582886
0.0235	-684.814	-0.582886
0.02355	-683.594	-0.595093
0.0236	-681.152	-0.592041
0.02365	-683.594	-0.601196
0.0237	-690.918	-0.582886
0.02375	-687.866	-0.592041
0.0238	-683.594	-0.585938
0.02385	-689.087	-0.592041
0.0239	-681.152	-0.595093
0.02395	-681.763	-0.585938
0.024	-687.256	-0.588989
0.02405	-693.359	-0.579834
0.0241	-687.256	-0.6073
0.02415	-685.425	-0.588989
0.0242	-700.684	-0.582886
0.02425	-698.242	-0.588989
0.0243	-692.749	-0.57373
0.02435	-692.749	-0.567627
0.0244	-693.97	-0.570679
0.02445	-701.904	-0.582886
0.0245	-689.697	-0.57373
0.02455	-689.697	-0.588989
0.0246	-691.528	-0.585938
0.02465	-693.97	-0.579834
0.0247	-698.853	-0.57373
0.02475	-697.021	-0.564575
0.0248	-691.528	-0.579834
0.02485	-696.411	-0.570679
0.0249	-702.515	-0.585938
0.02495	-698.242	-0.579834
0.025	-692.139	-0.582886
0.02505	-700.684	-0.598145
0.0251	-692.749	-0.582886
0.02515	-698.853	-0.585938
0.0252	-693.359	-0.567627
0.02525	-692.139	-0.570679
0.0253	-691.528	-0.567627
0.02535	-698.853	-0.576782
0.0254	-704.346	-0.57373
0.02545	-695.801	-0.570679
0.0255	-691.528	-0.576782
0.02555	-693.97	-0.561523
0.0256	-691.528	-0.592041
0.02565	-690.918	-0.582886
0.0257	-695.801	-0.585938
0.02575	-695.19	-0.595093
0.0258	-696.411	-0.570679
0.02585	-693.97	-0.588989
0.0259	-700.073	-0.570679
0.02595	-697.021	-0.588989
0.026	-698.242	-0.582886
0.02605	-688.477	-0.582886
0.0261	-692.749	-0.585938
0.02615	-697.021	-0.585938
0.0262	-694.58	-0.582886
0.02625	-690.308	-0.57373
0.0263	-700.684	-0.592041
0.02635	-684.204	-0.585938
0.0264	-695.19	-0.604248
0.02645	-687.866	-0.595093
0.0265	-692.749	-0.598145
0.02655	-692.749	-0.595093
0.0266	-692.749	-0.585938
0.02665	-693.97	-0.604248
0.0267	-691.528	-0.592041
0.02675	-688.477	-0.601196
0.0268	-690.918	-0.585938
0.02685	-691.528	-0.582886
0.0269	-699.463	-0.579834
0.02695	-685.425	-0.576782
0.027	-703.735	-0.592041
0.02705	-697.632	-0.582886
0.0271	-689.087	-0.598145
0.02715	-696.411	-0.595093
0.0272	-693.359	-0.598145
0.02725	-697.632	-0.588989
0.0273	-695.19	-0.588989
0.02735	-696.411	-0.595093
0.0274	-696.411	-0.582886
0.02745	-691.528	-0.595093
0.0275	-693.359	-0.576782
0.02755	-689.697	-0.595093
0.0276	-693.97	-0.582886
0.02765	-690.308	-0.588989
0.0277	-700.684	-0.592041
0.02775	-701.904	-0.576782
0.0278	-694.58	-0.585938
0.02785	-692.139	-0.57373
0.0279	-687.866	-0.598145
0.02795	-696.411	-0.588989
0.028	-698.242	-0.595093
0.02805	-690.918	-0.592041
0.0281	-698.242	-0.582886
0.02815	-695.19	-0.588989
0.0282	-700.073	-0.57373
0.02825	-690.918	-0.592041
0.0283	-687.866	-0.582886
0.02835	-697.632	-0.588989
0.0284	-692.139	-0.582886
0.02845	-692.139	-0.57373
0.0285	-698.853	-0.585938
0.02855	-694.58	-0.588989
0.0286	-693.359	-0.610352
0.02865	-692.749	-0.588989
0.0287	-696.411	-0.604248
0.02875	-695.801	-0.592041
0.0288	-688.477	-0.585938
0.02885	-689.697	-0.598145
0.0289	-689.697	-0.585938
0.02895	-701.294	-0.595093
0.029	-700.073	-0.576782
0.02905	-698.853	-0.598145
0.0291	-700.073	-0.585938
0.02915	-692.139	-0.585938
0.0292	-700.684	-0.588989
0.02925	-693.359	-0.582886
0.0293	-690.918	-0.592041
0.02935	-696.411	-0.582886
0.0294	-695.19	-0.598145
0.02945	-698.853	-0.576782
0.0295	-694.58	-0.579834
0.02955	-701.294	-0.576782
0.0296	-695.801	-0.585938
0.02965	-685.425	-0.585938
0.0297	-698.242	-0.579834
0.02975	-697.021	-0.598145
0.0298	-699.463	-0.579834
0.02985	-702.515	-0.592041
0.0299	-697.021	-0.598145
0.02995	-695.19	-0.585938
0.03	-701.904	-0.585938
0.03005	-700.684	-0.595093
0.0301	-695.801	-0.601196
0.03015	-698.242	-0.588989
0.0302	-690.918	-0.598145
0.03025	-690.918	-0.585938
0.0303	-702.515	-0.601196
0.03035	-695.801	-0.604248
0.0304	-693.359	-0.598145
0.03045	-698.853	-0.595093
0.0305	-690.918	-0.582886
0.03055	-694.58	-0.601196
0.0306	-702.515	-0.601196
0.03065	-692.749	-0.601196
0.0307	-693.97	-0.595093
0.03075	-704.346	-0.588989
0.0308	-693.359	-0.598145
0.03085	-700.073	-0.579834
0.0309	-697.632	-0.592041
0.03095	-705.566	-0.576782
0.031	-693.359	-0.588989
0.03105	-693.359	-0.579834
0.0311	-699.463	-0.57373
0.03115	-699.463	-0.585938
0.0312	-693.97	-0.576782
0.03125	-697.632	-0.592041
0.0313	-689.697	-0.582886
0.03135	-691.528	-0.601196
0.0314	-695.19	-0.595093
0.03145	-701.294	-0.598145
0.0315	-692.749	-0.588989
0.03155	-698.242	-0.592041
0.0316	-700.684	-0.604248
0.03165	-701.294	-0.579834
0.0317	-702.515	-0.588989
0.03175	-693.97	-0.582886
0.0318	-697.021	-0.588989
0.03185	-689.697	-0.576782
0.0319	-695.801	-0.576782
0.03195	-692.749	-0.595093
0.032	-695.801	-0.570679
0.03205	-693.97	-0.582886
0.0321	-698.242	-0.576782
0.03215	-700.684	-0.592041
0.0322	-697.021	-0.57373
0.03225	-702.515	-0.582886
0.0323	-690.308	-0.595093
0.03235	-692.139	-0.567627
0.0324	-696.411	-0.592041
0.03245	-689.697	-0.588989
0.0325	-692.749	-0.595093
0.03255	-698.242	-0.576782
0.0326	-693.97	-0.579834
0.03265	-698.853	-0.595093
0.0327	-696.411	-0.576782
0.03275	-694.58	-0.598145
0.0328	-697.021	-0.582886
0.03285	-694.58	-0.595093
0.0329	-697.632	-0.588989
0.03295	-693.359	-0.588989
0.033	-694.58	-0.592041
0.03305	-688.477	-0.576782
0.0331	-692.139	-0.585938
0.03315	-703.125	-0.576782
0.0332	-682.983	-0.588989
0.03325	-690.918	-0.57373
0.0333	-690.918	-0.585938
0.03335	-690.308	-0.579834
0.0334	-693.97	-0.582886
0.03345	-700.073	-0.588989
0.0335	-695.801	-0.585938
0.03355	-687.866	-0.598145
0.0336	-693.359	-0.579834
0.03365	-700.073	-0.582886
0.0337	-689.697	-0.582886
0.03375	-692.749	-0.576782
0.0338	-692.749	-0.579834
0.03385	-700.073	-0.57373
0.0339	-693.359	-0.579834
0.03395	-691.528	-0.564575
0.034	-687.256	-0.579834
0.03405	-686.646	-0.570679
0.0341	-692.139	-0.579834
0.03415	-690.918	-0.585938
0.0342	-693.359	-0.579834
0.03425	-687.866	-0.588989
0.0343	-697.021	-0.576782
0.03435	-693.97	-0.595093
0.0344	-697.632	-0.567627
0.03445	-694.58	-0.570679
0.0345	-690.918	-0.57373
0.03455	-684.204	-0.579834
0.0346	-688.477	-0.582886
0.03465	-691.528	-0.579834
0.0347	-692.139	-0.588989
0.03475	-684.204	-0.57373
0.0348	-684.814	-0.588989
0.03485	-689.697	-0.585938
0.0349	-682.983	-0.579834
0.03495	-686.646	-0.582886
0.035	-701.294	-0.570679
0.03505	-693.97	-0.585938
0.0351	-700.073	-0.564575
0.03515	-690.918	-0.585938
0.0352	-690.308	-0.585938
0.03525	-692.749	-0.585938
0.0353	-688.477	-0.576782
0.03535	-690.308	-0.570679
0.0354	-688.477	-0.57373
0.03545	-689.697	-0.57373
0.0355	-694.58	-0.585938
0.03555	-692.139	-0.588989
0.0356	-692.139	-0.595093
0.03565	-685.425	-0.588989
0.0357	-687.866	-0.588989
0.03575	-693.97	-0.598145
0.0358	-695.801	-0.579834
0.03585	-692.139	-0.592041
0.0359	-695.19	-0.576782
0.03595	-692.749	-0.585938
0.036	-690.918	-0.579834
0.03605	-693.359	-0.582886
0.0361	-690.308	-0.585938
0.03615	-690.918	-0.567627
0.0362	-697.632	-0.588989
0.03625	-692.749	-0.576782
0.0363	-692.139	-0.585938
0.03635	-696.411	-0.585938
0.0364	-692.749	-0.585938
0.03645	-691.528	-0.579834
0.0365	-693.97	-0.564575
0.03655	-689.697	-0.582886
0.0366	-691.528	-0.582886
0.03665	-691.528	-0.588989
0.0367	-689.087	-0.585938
0.03675	-697.021	-0.592041
0.0368	-698.853	-0.595093
0.03685	-689.087	-0.588989
0.0369	-690.308	-0.588989
0.03695	-687.866	-0.585938
0.037	-687.866	-0.592041
0.03705	-692.749	-0.585938
0.0371	-695.801	-0.585938
0.03715	-693.97	-0.588989
0.0372	-691.528	-0.576782
0.03725	-689.697	-0.595093
0.0373	-692.139	-0.582886
0.03735	-691.528	-0.604248
0.0374	-689.087	-0.582886
0.03745	-689.087	-0.588989
0.0375	-696.411	-0.585938
0.03755	-690.308	-0.582886
